# E (eV)  ldosup(E)  ldosdw(E) pdosup(E)  pdosdw(E)  
  5.000 -0.379E-05 -0.222E-05 -0.379E-05 -0.222E-05
  5.100 -0.177E-04 -0.115E-04 -0.177E-04 -0.115E-04
  5.200 -0.590E-04 -0.425E-04 -0.590E-04 -0.425E-04
  5.300 -0.137E-03 -0.110E-03 -0.137E-03 -0.110E-03
  5.400 -0.221E-03 -0.199E-03 -0.221E-03 -0.199E-03
  5.500 -0.247E-03 -0.249E-03 -0.247E-03 -0.249E-03
  5.600 -0.830E-04 -0.176E-03 -0.830E-04 -0.176E-03
  5.700  0.102E-02  0.490E-03  0.102E-02  0.490E-03
  5.800  0.491E-02  0.332E-02  0.491E-02  0.332E-02
  5.900  0.126E-01  0.996E-02  0.126E-01  0.996E-02
  6.000  0.205E-01  0.185E-01  0.205E-01  0.185E-01
  6.100  0.222E-01  0.226E-01  0.222E-01  0.226E-01
  6.200  0.172E-01  0.191E-01  0.172E-01  0.191E-01
  6.300  0.126E-01  0.134E-01  0.126E-01  0.134E-01
  6.400  0.149E-01  0.133E-01  0.149E-01  0.133E-01
  6.500  0.239E-01  0.205E-01  0.239E-01  0.205E-01
  6.600  0.376E-01  0.328E-01  0.376E-01  0.328E-01
  6.700  0.518E-01  0.477E-01  0.518E-01  0.477E-01
  6.800  0.559E-01  0.564E-01  0.559E-01  0.564E-01
  6.900  0.430E-01  0.488E-01  0.430E-01  0.488E-01
  7.000  0.214E-01  0.283E-01  0.214E-01  0.283E-01
  7.100  0.740E-02  0.103E-01  0.740E-02  0.103E-01
  7.200  0.101E-01  0.687E-02  0.101E-01  0.687E-02
  7.300  0.298E-01  0.209E-01  0.298E-01  0.209E-01
  7.400  0.584E-01  0.480E-01  0.584E-01  0.480E-01
  7.500  0.774E-01  0.730E-01  0.774E-01  0.730E-01
  7.600  0.730E-01  0.773E-01  0.730E-01  0.773E-01
  7.700  0.554E-01  0.613E-01  0.554E-01  0.613E-01
  7.800  0.464E-01  0.464E-01  0.464E-01  0.464E-01
  7.900  0.524E-01  0.474E-01  0.524E-01  0.474E-01
  8.000  0.623E-01  0.583E-01  0.623E-01  0.583E-01
  8.100  0.620E-01  0.647E-01  0.620E-01  0.647E-01
  8.200  0.459E-01  0.561E-01  0.459E-01  0.561E-01
  8.300  0.234E-01  0.341E-01  0.234E-01  0.341E-01
  8.400  0.157E-01  0.153E-01  0.157E-01  0.153E-01
  8.500  0.382E-01  0.193E-01  0.382E-01  0.193E-01
  8.600  0.842E-01  0.533E-01  0.842E-01  0.533E-01
  8.700  0.122E+00  0.101E+00  0.122E+00  0.101E+00
  8.800  0.121E+00  0.128E+00  0.121E+00  0.128E+00
  8.900  0.927E-01  0.113E+00  0.927E-01  0.113E+00
  9.000  0.733E-01  0.796E-01  0.733E-01  0.796E-01
  9.100  0.761E-01  0.646E-01  0.761E-01  0.646E-01
  9.200  0.804E-01  0.727E-01  0.804E-01  0.727E-01
  9.300  0.673E-01  0.803E-01  0.673E-01  0.803E-01
  9.400  0.444E-01  0.698E-01  0.444E-01  0.698E-01
  9.500  0.368E-01  0.473E-01  0.368E-01  0.473E-01
  9.600  0.617E-01  0.342E-01  0.617E-01  0.342E-01
  9.700  0.110E+00  0.477E-01  0.110E+00  0.477E-01
  9.800  0.152E+00  0.851E-01  0.152E+00  0.851E-01
  9.900  0.165E+00  0.127E+00  0.165E+00  0.127E+00
 10.000  0.153E+00  0.152E+00  0.153E+00  0.152E+00
 10.100  0.137E+00  0.153E+00  0.137E+00  0.153E+00
 10.200  0.125E+00  0.137E+00  0.125E+00  0.137E+00
 10.300  0.112E+00  0.118E+00  0.112E+00  0.118E+00
 10.400  0.997E-01  0.105E+00  0.997E-01  0.105E+00
 10.500  0.963E-01  0.982E-01  0.963E-01  0.982E-01
 10.600  0.107E+00  0.954E-01  0.107E+00  0.954E-01
 10.700  0.120E+00  0.973E-01  0.120E+00  0.973E-01
 10.800  0.117E+00  0.112E+00  0.117E+00  0.112E+00
 10.900  0.945E-01  0.137E+00  0.945E-01  0.137E+00
 11.000  0.650E-01  0.151E+00  0.650E-01  0.151E+00
 11.100  0.433E-01  0.131E+00  0.433E-01  0.131E+00
 11.200  0.330E-01  0.895E-01  0.330E-01  0.895E-01
 11.300  0.285E-01  0.582E-01  0.285E-01  0.582E-01
 11.400  0.235E-01  0.497E-01  0.235E-01  0.497E-01
 11.500  0.161E-01  0.505E-01  0.161E-01  0.505E-01
 11.600  0.961E-02  0.467E-01  0.961E-02  0.467E-01
 11.700  0.762E-02  0.370E-01  0.762E-02  0.370E-01
 11.800  0.107E-01  0.261E-01  0.107E-01  0.261E-01
 11.900  0.172E-01  0.168E-01  0.172E-01  0.168E-01
 12.000  0.245E-01  0.100E-01  0.245E-01  0.100E-01
 12.100  0.301E-01  0.638E-02  0.301E-01  0.638E-02
 12.200  0.319E-01  0.617E-02  0.319E-01  0.617E-02
 12.300  0.304E-01  0.878E-02  0.304E-01  0.878E-02
 12.400  0.293E-01  0.131E-01  0.293E-01  0.131E-01
 12.500  0.332E-01  0.184E-01  0.332E-01  0.184E-01
 12.600  0.434E-01  0.241E-01  0.434E-01  0.241E-01
 12.700  0.544E-01  0.286E-01  0.544E-01  0.286E-01
 12.800  0.589E-01  0.307E-01  0.589E-01  0.307E-01
 12.900  0.543E-01  0.329E-01  0.543E-01  0.329E-01
 13.000  0.434E-01  0.391E-01  0.434E-01  0.391E-01
 13.100  0.303E-01  0.487E-01  0.303E-01  0.487E-01
 13.200  0.186E-01  0.558E-01  0.186E-01  0.558E-01
 13.300  0.118E-01  0.560E-01  0.118E-01  0.560E-01
 13.400  0.111E-01  0.496E-01  0.111E-01  0.496E-01
 13.500  0.144E-01  0.395E-01  0.144E-01  0.395E-01
 13.600  0.187E-01  0.288E-01  0.187E-01  0.288E-01
 13.700  0.228E-01  0.204E-01  0.228E-01  0.204E-01
 13.800  0.263E-01  0.166E-01  0.263E-01  0.166E-01
 13.900  0.273E-01  0.173E-01  0.273E-01  0.173E-01
 14.000  0.252E-01  0.196E-01  0.252E-01  0.196E-01
 14.100  0.232E-01  0.219E-01  0.232E-01  0.219E-01
 14.200  0.247E-01  0.254E-01  0.247E-01  0.254E-01
 14.300  0.281E-01  0.300E-01  0.281E-01  0.300E-01
 14.400  0.282E-01  0.303E-01  0.282E-01  0.303E-01
 14.500  0.228E-01  0.225E-01  0.228E-01  0.225E-01
 14.600  0.142E-01  0.120E-01  0.142E-01  0.120E-01
 14.700  0.625E-02  0.796E-02  0.625E-02  0.796E-02
 14.800  0.240E-02  0.130E-01  0.240E-02  0.130E-01
 14.900  0.583E-02  0.210E-01  0.583E-02  0.210E-01
 15.000  0.179E-01  0.241E-01  0.179E-01  0.241E-01
 15.100  0.378E-01  0.206E-01  0.378E-01  0.206E-01
 15.200  0.603E-01  0.140E-01  0.603E-01  0.140E-01
 15.300  0.740E-01  0.784E-02  0.740E-01  0.784E-02
 15.400  0.696E-01  0.446E-02  0.696E-01  0.446E-02
 15.500  0.540E-01  0.583E-02  0.540E-01  0.583E-02
 15.600  0.445E-01  0.138E-01  0.445E-01  0.138E-01
 15.700  0.467E-01  0.295E-01  0.467E-01  0.295E-01
 15.800  0.472E-01  0.503E-01  0.472E-01  0.503E-01
 15.900  0.350E-01  0.672E-01  0.350E-01  0.672E-01
 16.000  0.179E-01  0.715E-01  0.179E-01  0.715E-01
 16.100  0.146E-01  0.657E-01  0.146E-01  0.657E-01
 16.200  0.345E-01  0.564E-01  0.345E-01  0.564E-01
 16.300  0.677E-01  0.439E-01  0.677E-01  0.439E-01
 16.400  0.917E-01  0.271E-01  0.917E-01  0.271E-01
 16.500  0.931E-01  0.119E-01  0.931E-01  0.119E-01
 16.600  0.803E-01  0.935E-02  0.803E-01  0.935E-02
 16.700  0.691E-01  0.245E-01  0.691E-01  0.245E-01
 16.800  0.642E-01  0.497E-01  0.642E-01  0.497E-01
 16.900  0.638E-01  0.703E-01  0.638E-01  0.703E-01
 17.000  0.673E-01  0.787E-01  0.673E-01  0.787E-01
 17.100  0.695E-01  0.783E-01  0.695E-01  0.783E-01
 17.200  0.622E-01  0.758E-01  0.622E-01  0.758E-01
 17.300  0.451E-01  0.760E-01  0.451E-01  0.760E-01
 17.400  0.257E-01  0.792E-01  0.257E-01  0.792E-01
 17.500  0.129E-01  0.784E-01  0.129E-01  0.784E-01
 17.600  0.119E-01  0.636E-01  0.119E-01  0.636E-01
 17.700  0.212E-01  0.367E-01  0.212E-01  0.367E-01
 17.800  0.353E-01  0.135E-01  0.353E-01  0.135E-01
 17.900  0.515E-01  0.805E-02  0.515E-01  0.805E-02
 18.000  0.706E-01  0.198E-01  0.706E-01  0.198E-01
 18.100  0.875E-01  0.359E-01  0.875E-01  0.359E-01
 18.200  0.894E-01  0.448E-01  0.894E-01  0.448E-01
 18.300  0.704E-01  0.481E-01  0.704E-01  0.481E-01
 18.400  0.453E-01  0.561E-01  0.453E-01  0.561E-01
 18.500  0.376E-01  0.687E-01  0.376E-01  0.687E-01
 18.600  0.485E-01  0.721E-01  0.485E-01  0.721E-01
 18.700  0.555E-01  0.590E-01  0.555E-01  0.590E-01
 18.800  0.451E-01  0.446E-01  0.451E-01  0.446E-01
 18.900  0.288E-01  0.451E-01  0.288E-01  0.451E-01
 19.000  0.201E-01  0.528E-01  0.201E-01  0.528E-01
 19.100  0.185E-01  0.495E-01  0.185E-01  0.495E-01
 19.200  0.214E-01  0.351E-01  0.214E-01  0.351E-01
 19.300  0.329E-01  0.228E-01  0.329E-01  0.228E-01
 19.400  0.493E-01  0.188E-01  0.493E-01  0.188E-01
 19.500  0.545E-01  0.232E-01  0.545E-01  0.232E-01
 19.600  0.403E-01  0.368E-01  0.403E-01  0.368E-01
 19.700  0.177E-01  0.515E-01  0.177E-01  0.515E-01
 19.800  0.197E-02  0.511E-01  0.197E-02  0.511E-01
 19.900 -0.350E-02  0.327E-01 -0.350E-02  0.327E-01
 20.000 -0.385E-02  0.110E-01 -0.385E-02  0.110E-01
 20.100 -0.229E-02 -0.107E-02 -0.229E-02 -0.107E-02
 20.200  0.344E-02 -0.392E-02  0.344E-02 -0.392E-02
 20.300  0.161E-01 -0.351E-02  0.161E-01 -0.351E-02
 20.400  0.313E-01 -0.149E-02  0.313E-01 -0.149E-02
 20.500  0.382E-01  0.556E-02  0.382E-01  0.556E-02
 20.600  0.311E-01  0.195E-01  0.311E-01  0.195E-01
 20.700  0.173E-01  0.338E-01  0.173E-01  0.338E-01
 20.800  0.956E-02  0.372E-01  0.956E-02  0.372E-01
 20.900  0.116E-01  0.269E-01  0.116E-01  0.269E-01
 21.000  0.157E-01  0.136E-01  0.157E-01  0.136E-01
 21.100  0.133E-01  0.885E-02  0.133E-01  0.885E-02
 21.200  0.605E-02  0.127E-01  0.605E-02  0.127E-01
 21.300  0.343E-02  0.157E-01  0.343E-02  0.157E-01
 21.400  0.135E-01  0.121E-01  0.135E-01  0.121E-01
 21.500  0.348E-01  0.575E-02  0.348E-01  0.575E-02
 21.600  0.566E-01  0.440E-02  0.566E-01  0.440E-02
 21.700  0.675E-01  0.106E-01  0.675E-01  0.106E-01
 21.800  0.669E-01  0.221E-01  0.669E-01  0.221E-01
 21.900  0.654E-01  0.368E-01  0.654E-01  0.368E-01
 22.000  0.706E-01  0.523E-01  0.706E-01  0.523E-01
 22.100  0.819E-01  0.650E-01  0.819E-01  0.650E-01
 22.200  0.945E-01  0.735E-01  0.945E-01  0.735E-01
 22.300  0.984E-01  0.809E-01  0.984E-01  0.809E-01
 22.400  0.838E-01  0.900E-01  0.838E-01  0.900E-01
 22.500  0.572E-01  0.992E-01  0.572E-01  0.992E-01
 22.600  0.390E-01  0.998E-01  0.390E-01  0.998E-01
 22.700  0.368E-01  0.839E-01  0.368E-01  0.839E-01
 22.800  0.394E-01  0.595E-01  0.394E-01  0.595E-01
 22.900  0.383E-01  0.443E-01  0.383E-01  0.443E-01
 23.000  0.366E-01  0.415E-01  0.366E-01  0.415E-01
 23.100  0.371E-01  0.400E-01  0.371E-01  0.400E-01
 23.200  0.367E-01  0.368E-01  0.367E-01  0.368E-01
 23.300  0.342E-01  0.379E-01  0.342E-01  0.379E-01
 23.400  0.299E-01  0.421E-01  0.299E-01  0.421E-01
 23.500  0.232E-01  0.408E-01  0.232E-01  0.408E-01
 23.600  0.156E-01  0.324E-01  0.156E-01  0.324E-01
 23.700  0.146E-01  0.232E-01  0.146E-01  0.232E-01
 23.800  0.247E-01  0.177E-01  0.247E-01  0.177E-01
 23.900  0.374E-01  0.185E-01  0.374E-01  0.185E-01
 24.000  0.385E-01  0.272E-01  0.385E-01  0.272E-01
 24.100  0.278E-01  0.382E-01  0.278E-01  0.382E-01
 24.200  0.177E-01  0.393E-01  0.177E-01  0.393E-01
 24.300  0.145E-01  0.283E-01  0.145E-01  0.283E-01
 24.400  0.127E-01  0.169E-01  0.127E-01  0.169E-01
 24.500  0.842E-02  0.138E-01  0.842E-02  0.138E-01
 24.600  0.520E-02  0.141E-01  0.520E-02  0.141E-01
 24.700  0.675E-02  0.110E-01  0.675E-02  0.110E-01
 24.800  0.104E-01  0.656E-02  0.104E-01  0.656E-02
 24.900  0.118E-01  0.647E-02  0.118E-01  0.647E-02
 25.000  0.120E-01  0.103E-01  0.120E-01  0.103E-01
 25.100  0.167E-01  0.125E-01  0.167E-01  0.125E-01
