# E (eV)  ldosup(E)  ldosdw(E) pdosup(E)  pdosdw(E)  pdosup(E)  pdosdw(E)  pdosup(E)  pdosdw(E)  pdosup(E)  pdosdw(E)  pdosup(E)  pdosdw(E)  
  5.000 -0.296E-10 -0.115E-10 -0.999E-12 -0.374E-12 -0.920E-11 -0.359E-11 -0.920E-11 -0.359E-11 -0.999E-12 -0.374E-12 -0.920E-11 -0.359E-11
  5.100 -0.347E-09 -0.147E-09 -0.152E-10 -0.622E-11 -0.105E-09 -0.450E-10 -0.105E-09 -0.450E-10 -0.152E-10 -0.622E-11 -0.105E-09 -0.450E-10
  5.200 -0.302E-08 -0.141E-08 -0.172E-09 -0.769E-10 -0.891E-09 -0.418E-09 -0.891E-09 -0.418E-09 -0.172E-09 -0.769E-10 -0.891E-09 -0.418E-09
  5.300 -0.193E-07 -0.991E-08 -0.143E-08 -0.704E-09 -0.548E-08 -0.283E-08 -0.548E-08 -0.283E-08 -0.143E-08 -0.704E-09 -0.548E-08 -0.283E-08
  5.400 -0.893E-07 -0.508E-07 -0.869E-08 -0.471E-08 -0.240E-07 -0.138E-07 -0.240E-07 -0.138E-07 -0.869E-08 -0.471E-08 -0.240E-07 -0.138E-07
  5.500 -0.287E-06 -0.184E-06 -0.374E-07 -0.226E-07 -0.707E-07 -0.463E-07 -0.707E-07 -0.463E-07 -0.374E-07 -0.226E-07 -0.707E-07 -0.463E-07
  5.600 -0.579E-06 -0.438E-06 -0.108E-06 -0.745E-07 -0.121E-06 -0.962E-07 -0.121E-06 -0.962E-07 -0.108E-06 -0.745E-07 -0.121E-06 -0.962E-07
  5.700 -0.438E-06 -0.521E-06 -0.180E-06 -0.152E-06 -0.256E-07 -0.728E-07 -0.256E-07 -0.728E-07 -0.180E-06 -0.152E-06 -0.256E-07 -0.728E-07
  5.800  0.122E-05  0.428E-06 -0.267E-07 -0.107E-06  0.425E-06  0.214E-06  0.425E-06  0.214E-06 -0.267E-07 -0.107E-06  0.425E-06  0.214E-06
  5.900  0.465E-05  0.308E-05  0.674E-06  0.359E-06  0.110E-05  0.788E-06  0.110E-05  0.788E-06  0.674E-06  0.359E-06  0.110E-05  0.788E-06
  6.000  0.748E-05  0.612E-05  0.179E-05  0.131E-05  0.130E-05  0.116E-05  0.130E-05  0.116E-05  0.179E-05  0.131E-05  0.130E-05  0.116E-05
  6.100  0.689E-05  0.665E-05  0.242E-05  0.212E-05  0.684E-06  0.803E-06  0.684E-06  0.803E-06  0.242E-05  0.212E-05  0.684E-06  0.803E-06
  6.200  0.545E-05  0.502E-05  0.183E-05  0.194E-05  0.596E-06  0.383E-06  0.596E-06  0.383E-06  0.183E-05  0.194E-05  0.596E-06  0.383E-06
  6.300  0.115E-04  0.742E-05  0.843E-06  0.977E-06  0.326E-05  0.182E-05  0.326E-05  0.182E-05  0.843E-06  0.977E-06  0.326E-05  0.182E-05
  6.400  0.339E-04  0.216E-04  0.253E-05  0.132E-05  0.962E-05  0.631E-05  0.962E-05  0.631E-05  0.253E-05  0.132E-05  0.962E-05  0.631E-05
  6.500  0.878E-04  0.578E-04  0.122E-04  0.721E-05  0.212E-04  0.145E-04  0.212E-04  0.145E-04  0.122E-04  0.721E-05  0.212E-04  0.145E-04
  6.600  0.192E-03  0.134E-03  0.326E-04  0.228E-04  0.422E-04  0.294E-04  0.422E-04  0.294E-04  0.326E-04  0.228E-04  0.422E-04  0.294E-04
  6.700  0.321E-03  0.245E-03  0.543E-04  0.437E-04  0.707E-04  0.525E-04  0.707E-04  0.525E-04  0.543E-04  0.437E-04  0.707E-04  0.525E-04
  6.800  0.379E-03  0.325E-03  0.589E-04  0.541E-04  0.872E-04  0.722E-04  0.872E-04  0.722E-04  0.589E-04  0.541E-04  0.872E-04  0.722E-04
  6.900  0.298E-03  0.294E-03  0.434E-04  0.445E-04  0.705E-04  0.682E-04  0.705E-04  0.682E-04  0.434E-04  0.445E-04  0.705E-04  0.682E-04
  7.000  0.138E-03  0.166E-03  0.302E-04  0.291E-04  0.258E-04  0.359E-04  0.258E-04  0.359E-04  0.302E-04  0.291E-04  0.258E-04  0.359E-04
  7.100  0.463E-04  0.526E-04  0.385E-04  0.294E-04 -0.102E-04 -0.207E-05 -0.102E-04 -0.207E-05  0.385E-04  0.294E-04 -0.102E-04 -0.207E-05
  7.200  0.183E-03  0.861E-04  0.681E-04  0.493E-04  0.156E-04 -0.420E-05  0.156E-04 -0.420E-05  0.681E-04  0.493E-04  0.156E-04 -0.420E-05
  7.300  0.658E-03  0.385E-03  0.123E-03  0.884E-04  0.138E-03  0.693E-04  0.138E-03  0.693E-04  0.123E-03  0.884E-04  0.138E-03  0.693E-04
  7.400  0.135E-02  0.945E-03  0.209E-03  0.156E-03  0.311E-03  0.211E-03  0.311E-03  0.211E-03  0.209E-03  0.156E-03  0.311E-03  0.211E-03
  7.500  0.182E-02  0.147E-02  0.286E-03  0.237E-03  0.418E-03  0.334E-03  0.418E-03  0.334E-03  0.286E-03  0.237E-03  0.418E-03  0.334E-03
  7.600  0.180E-02  0.160E-02  0.288E-03  0.267E-03  0.409E-03  0.354E-03  0.409E-03  0.354E-03  0.288E-03  0.267E-03  0.409E-03  0.354E-03
  7.700  0.164E-02  0.140E-02  0.225E-03  0.221E-03  0.396E-03  0.319E-03  0.396E-03  0.319E-03  0.225E-03  0.221E-03  0.396E-03  0.319E-03
  7.800  0.192E-02  0.140E-02  0.219E-03  0.176E-03  0.494E-03  0.350E-03  0.494E-03  0.350E-03  0.219E-03  0.176E-03  0.494E-03  0.350E-03
  7.900  0.274E-02  0.192E-02  0.392E-03  0.255E-03  0.651E-03  0.469E-03  0.651E-03  0.469E-03  0.392E-03  0.255E-03  0.651E-03  0.469E-03
  8.000  0.358E-02  0.271E-02  0.716E-03  0.500E-03  0.717E-03  0.570E-03  0.717E-03  0.570E-03  0.716E-03  0.500E-03  0.717E-03  0.570E-03
  8.100  0.369E-02  0.321E-02  0.947E-03  0.774E-03  0.599E-03  0.555E-03  0.599E-03  0.555E-03  0.947E-03  0.774E-03  0.599E-03  0.555E-03
  8.200  0.264E-02  0.284E-02  0.831E-03  0.825E-03  0.328E-03  0.397E-03  0.328E-03  0.397E-03  0.831E-03  0.825E-03  0.328E-03  0.397E-03
  8.300  0.112E-02  0.162E-02  0.434E-03  0.555E-03  0.848E-04  0.170E-03  0.848E-04  0.170E-03  0.434E-03  0.555E-03  0.848E-04  0.170E-03
  8.400  0.974E-03  0.588E-03  0.175E-03  0.204E-03  0.208E-03  0.598E-04  0.208E-03  0.598E-04  0.175E-03  0.204E-03  0.208E-03  0.598E-04
  8.500  0.401E-02  0.135E-02  0.454E-03  0.164E-03  0.103E-02  0.339E-03  0.103E-02  0.339E-03  0.454E-03  0.164E-03  0.103E-02  0.339E-03
  8.600  0.985E-02  0.488E-02  0.126E-02  0.643E-03  0.244E-02  0.120E-02  0.244E-02  0.120E-02  0.126E-02  0.643E-03  0.244E-02  0.120E-02
  8.700  0.148E-01  0.995E-02  0.207E-02  0.143E-02  0.356E-02  0.236E-02  0.356E-02  0.236E-02  0.207E-02  0.143E-02  0.356E-02  0.236E-02
  8.800  0.154E-01  0.130E-01  0.244E-02  0.201E-02  0.349E-02  0.300E-02  0.349E-02  0.300E-02  0.244E-02  0.201E-02  0.349E-02  0.300E-02
  8.900  0.134E-01  0.120E-01  0.260E-02  0.214E-02  0.273E-02  0.258E-02  0.273E-02  0.258E-02  0.260E-02  0.214E-02  0.273E-02  0.258E-02
  9.000  0.142E-01  0.977E-02  0.299E-02  0.222E-02  0.274E-02  0.177E-02  0.274E-02  0.177E-02  0.299E-02  0.222E-02  0.274E-02  0.177E-02
  9.100  0.186E-01  0.105E-01  0.344E-02  0.259E-02  0.392E-02  0.178E-02  0.392E-02  0.178E-02  0.344E-02  0.259E-02  0.392E-02  0.178E-02
  9.200  0.214E-01  0.143E-01  0.340E-02  0.294E-02  0.487E-02  0.279E-02  0.487E-02  0.279E-02  0.340E-02  0.294E-02  0.487E-02  0.279E-02
  9.300  0.182E-01  0.170E-01  0.299E-02  0.284E-02  0.407E-02  0.377E-02  0.407E-02  0.377E-02  0.299E-02  0.284E-02  0.407E-02  0.377E-02
  9.400  0.120E-01  0.156E-01  0.316E-02  0.238E-02  0.190E-02  0.361E-02  0.190E-02  0.361E-02  0.316E-02  0.238E-02  0.190E-02  0.361E-02
  9.500  0.124E-01  0.115E-01  0.456E-02  0.233E-02  0.109E-02  0.226E-02  0.109E-02  0.226E-02  0.456E-02  0.233E-02  0.109E-02  0.226E-02
  9.600  0.277E-01  0.976E-02  0.633E-02  0.347E-02  0.503E-02  0.939E-03  0.503E-02  0.939E-03  0.633E-02  0.347E-02  0.503E-02  0.939E-03
  9.700  0.572E-01  0.154E-01  0.689E-02  0.538E-02  0.145E-01  0.155E-02  0.145E-01  0.155E-02  0.689E-02  0.538E-02  0.145E-01  0.155E-02
  9.800  0.905E-01  0.295E-01  0.662E-02  0.659E-02  0.258E-01  0.544E-02  0.258E-01  0.544E-02  0.662E-02  0.659E-02  0.258E-01  0.544E-02
  9.900  0.121E+00  0.487E-01  0.946E-02  0.670E-02  0.339E-01  0.118E-01  0.339E-01  0.118E-01  0.946E-02  0.670E-02  0.339E-01  0.118E-01
 10.000  0.156E+00  0.668E-01  0.214E-01  0.710E-02  0.377E-01  0.175E-01  0.377E-01  0.175E-01  0.214E-01  0.710E-02  0.377E-01  0.175E-01
 10.100  0.208E+00  0.788E-01  0.447E-01  0.905E-02  0.394E-01  0.202E-01  0.394E-01  0.202E-01  0.447E-01  0.905E-02  0.394E-01  0.202E-01
 10.200  0.267E+00  0.870E-01  0.716E-01  0.129E-01  0.412E-01  0.204E-01  0.412E-01  0.204E-01  0.716E-01  0.129E-01  0.412E-01  0.204E-01
 10.300  0.315E+00  0.103E+00  0.893E-01  0.202E-01  0.455E-01  0.210E-01  0.455E-01  0.210E-01  0.893E-01  0.202E-01  0.455E-01  0.210E-01
 10.400  0.351E+00  0.142E+00  0.959E-01  0.337E-01  0.531E-01  0.248E-01  0.531E-01  0.248E-01  0.959E-01  0.337E-01  0.531E-01  0.248E-01
 10.500  0.394E+00  0.197E+00  0.103E+00  0.522E-01  0.627E-01  0.309E-01  0.627E-01  0.309E-01  0.103E+00  0.522E-01  0.627E-01  0.309E-01
 10.600  0.455E+00  0.247E+00  0.115E+00  0.678E-01  0.746E-01  0.372E-01  0.746E-01  0.372E-01  0.115E+00  0.678E-01  0.746E-01  0.372E-01
 10.700  0.532E+00  0.284E+00  0.126E+00  0.764E-01  0.936E-01  0.439E-01  0.936E-01  0.439E-01  0.126E+00  0.764E-01  0.936E-01  0.439E-01
 10.800  0.625E+00  0.332E+00  0.128E+00  0.870E-01  0.123E+00  0.528E-01  0.123E+00  0.528E-01  0.128E+00  0.870E-01  0.123E+00  0.528E-01
 10.900  0.724E+00  0.397E+00  0.129E+00  0.107E+00  0.156E+00  0.612E-01  0.156E+00  0.612E-01  0.129E+00  0.107E+00  0.156E+00  0.612E-01
 11.000  0.793E+00  0.433E+00  0.130E+00  0.123E+00  0.178E+00  0.622E-01  0.178E+00  0.622E-01  0.130E+00  0.123E+00  0.178E+00  0.622E-01
 11.100  0.816E+00  0.412E+00  0.130E+00  0.120E+00  0.185E+00  0.572E-01  0.185E+00  0.572E-01  0.130E+00  0.120E+00  0.185E+00  0.572E-01
 11.200  0.823E+00  0.402E+00  0.128E+00  0.108E+00  0.189E+00  0.619E-01  0.189E+00  0.619E-01  0.128E+00  0.108E+00  0.189E+00  0.619E-01
 11.300  0.834E+00  0.485E+00  0.126E+00  0.109E+00  0.194E+00  0.888E-01  0.194E+00  0.888E-01  0.126E+00  0.109E+00  0.194E+00  0.888E-01
 11.400  0.824E+00  0.630E+00  0.125E+00  0.124E+00  0.191E+00  0.127E+00  0.191E+00  0.127E+00  0.125E+00  0.124E+00  0.191E+00  0.127E+00
 11.500  0.776E+00  0.732E+00  0.123E+00  0.134E+00  0.177E+00  0.155E+00  0.177E+00  0.155E+00  0.123E+00  0.134E+00  0.177E+00  0.155E+00
 11.600  0.716E+00  0.757E+00  0.122E+00  0.128E+00  0.157E+00  0.167E+00  0.157E+00  0.167E+00  0.122E+00  0.128E+00  0.157E+00  0.167E+00
 11.700  0.695E+00  0.763E+00  0.130E+00  0.117E+00  0.145E+00  0.176E+00  0.145E+00  0.176E+00  0.130E+00  0.117E+00  0.145E+00  0.176E+00
 11.800  0.737E+00  0.784E+00  0.142E+00  0.112E+00  0.151E+00  0.187E+00  0.151E+00  0.187E+00  0.142E+00  0.112E+00  0.151E+00  0.187E+00
 11.900  0.808E+00  0.778E+00  0.141E+00  0.107E+00  0.175E+00  0.188E+00  0.175E+00  0.188E+00  0.141E+00  0.107E+00  0.175E+00  0.188E+00
 12.000  0.856E+00  0.727E+00  0.125E+00  0.101E+00  0.202E+00  0.175E+00  0.202E+00  0.175E+00  0.125E+00  0.101E+00  0.202E+00  0.175E+00
 12.100  0.892E+00  0.680E+00  0.114E+00  0.103E+00  0.221E+00  0.158E+00  0.221E+00  0.158E+00  0.114E+00  0.103E+00  0.221E+00  0.158E+00
 12.200  0.949E+00  0.677E+00  0.121E+00  0.120E+00  0.236E+00  0.146E+00  0.236E+00  0.146E+00  0.121E+00  0.120E+00  0.236E+00  0.146E+00
 12.300  0.101E+01  0.704E+00  0.136E+00  0.133E+00  0.247E+00  0.146E+00  0.247E+00  0.146E+00  0.136E+00  0.133E+00  0.247E+00  0.146E+00
 12.400  0.105E+01  0.730E+00  0.146E+00  0.123E+00  0.253E+00  0.161E+00  0.253E+00  0.161E+00  0.146E+00  0.123E+00  0.253E+00  0.161E+00
 12.500  0.109E+01  0.758E+00  0.159E+00  0.101E+00  0.258E+00  0.186E+00  0.258E+00  0.186E+00  0.159E+00  0.101E+00  0.258E+00  0.186E+00
 12.600  0.118E+01  0.810E+00  0.180E+00  0.945E-01  0.274E+00  0.207E+00  0.274E+00  0.207E+00  0.180E+00  0.945E-01  0.274E+00  0.207E+00
 12.700  0.133E+01  0.892E+00  0.204E+00  0.110E+00  0.307E+00  0.224E+00  0.307E+00  0.224E+00  0.204E+00  0.110E+00  0.307E+00  0.224E+00
 12.800  0.147E+01  0.963E+00  0.219E+00  0.124E+00  0.344E+00  0.238E+00  0.344E+00  0.238E+00  0.219E+00  0.124E+00  0.344E+00  0.238E+00
 12.900  0.151E+01  0.995E+00  0.223E+00  0.122E+00  0.356E+00  0.250E+00  0.356E+00  0.250E+00  0.223E+00  0.122E+00  0.356E+00  0.250E+00
 13.000  0.139E+01  0.102E+01  0.214E+00  0.124E+00  0.322E+00  0.257E+00  0.322E+00  0.257E+00  0.214E+00  0.124E+00  0.322E+00  0.257E+00
 13.100  0.115E+01  0.107E+01  0.192E+00  0.144E+00  0.255E+00  0.261E+00  0.255E+00  0.261E+00  0.192E+00  0.144E+00  0.255E+00  0.261E+00
 13.200  0.898E+00  0.115E+01  0.168E+00  0.173E+00  0.188E+00  0.266E+00  0.188E+00  0.266E+00  0.168E+00  0.173E+00  0.188E+00  0.266E+00
 13.300  0.754E+00  0.122E+01  0.160E+00  0.196E+00  0.145E+00  0.277E+00  0.145E+00  0.277E+00  0.160E+00  0.196E+00  0.145E+00  0.277E+00
 13.400  0.759E+00  0.130E+01  0.185E+00  0.214E+00  0.130E+00  0.292E+00  0.130E+00  0.292E+00  0.185E+00  0.214E+00  0.130E+00  0.292E+00
 13.500  0.885E+00  0.134E+01  0.239E+00  0.227E+00  0.136E+00  0.295E+00  0.136E+00  0.295E+00  0.239E+00  0.227E+00  0.136E+00  0.295E+00
 13.600  0.107E+01  0.126E+01  0.307E+00  0.227E+00  0.151E+00  0.270E+00  0.151E+00  0.270E+00  0.307E+00  0.227E+00  0.151E+00  0.270E+00
 13.700  0.122E+01  0.108E+01  0.372E+00  0.208E+00  0.157E+00  0.222E+00  0.157E+00  0.222E+00  0.372E+00  0.208E+00  0.157E+00  0.222E+00
 13.800  0.124E+01  0.907E+00  0.410E+00  0.185E+00  0.140E+00  0.179E+00  0.140E+00  0.179E+00  0.410E+00  0.185E+00  0.140E+00  0.179E+00
 13.900  0.114E+01  0.826E+00  0.408E+00  0.181E+00  0.109E+00  0.155E+00  0.109E+00  0.155E+00  0.408E+00  0.181E+00  0.109E+00  0.155E+00
 14.000  0.106E+01  0.823E+00  0.380E+00  0.207E+00  0.986E-01  0.136E+00  0.986E-01  0.136E+00  0.380E+00  0.207E+00  0.986E-01  0.136E+00
 14.100  0.108E+01  0.865E+00  0.354E+00  0.253E+00  0.125E+00  0.120E+00  0.125E+00  0.120E+00  0.354E+00  0.253E+00  0.125E+00  0.120E+00
 14.200  0.117E+01  0.980E+00  0.335E+00  0.310E+00  0.166E+00  0.120E+00  0.166E+00  0.120E+00  0.335E+00  0.310E+00  0.166E+00  0.120E+00
 14.300  0.121E+01  0.115E+01  0.317E+00  0.370E+00  0.191E+00  0.137E+00  0.191E+00  0.137E+00  0.317E+00  0.370E+00  0.191E+00  0.137E+00
 14.400  0.128E+01  0.123E+01  0.312E+00  0.408E+00  0.218E+00  0.139E+00  0.218E+00  0.139E+00  0.312E+00  0.408E+00  0.218E+00  0.139E+00
 14.500  0.149E+01  0.113E+01  0.331E+00  0.399E+00  0.278E+00  0.111E+00  0.278E+00  0.111E+00  0.331E+00  0.399E+00  0.278E+00  0.111E+00
 14.600  0.175E+01  0.954E+00  0.343E+00  0.357E+00  0.354E+00  0.798E-01  0.354E+00  0.798E-01  0.343E+00  0.357E+00  0.354E+00  0.798E-01
 14.700  0.174E+01  0.900E+00  0.300E+00  0.321E+00  0.381E+00  0.863E-01  0.381E+00  0.863E-01  0.300E+00  0.321E+00  0.381E+00  0.863E-01
 14.800  0.136E+01  0.101E+01  0.199E+00  0.305E+00  0.319E+00  0.133E+00  0.319E+00  0.133E+00  0.199E+00  0.305E+00  0.319E+00  0.133E+00
 14.900  0.784E+00  0.112E+01  0.932E-01  0.292E+00  0.199E+00  0.179E+00  0.199E+00  0.179E+00  0.932E-01  0.292E+00  0.199E+00  0.179E+00
 15.000  0.333E+00  0.113E+01  0.316E-01  0.272E+00  0.898E-01  0.196E+00  0.898E-01  0.196E+00  0.316E-01  0.272E+00  0.898E-01  0.196E+00
 15.100  0.142E+00  0.116E+01  0.200E-01  0.265E+00  0.340E-01  0.208E+00  0.340E-01  0.208E+00  0.200E-01  0.265E+00  0.340E-01  0.208E+00
 15.200  0.144E+00  0.133E+01  0.332E-01  0.278E+00  0.259E-01  0.258E+00  0.259E-01  0.258E+00  0.332E-01  0.278E+00  0.259E-01  0.258E+00
 15.300  0.189E+00  0.155E+01  0.437E-01  0.279E+00  0.337E-01  0.332E+00  0.337E-01  0.332E+00  0.437E-01  0.279E+00  0.337E-01  0.332E+00
 15.400  0.179E+00  0.158E+01  0.390E-01  0.233E+00  0.337E-01  0.371E+00  0.337E-01  0.371E+00  0.390E-01  0.233E+00  0.337E-01  0.371E+00
 15.500  0.120E+00  0.130E+01  0.242E-01  0.153E+00  0.239E-01  0.333E+00  0.239E-01  0.333E+00  0.242E-01  0.153E+00  0.239E-01  0.333E+00
 15.600  0.669E-01  0.865E+00  0.119E-01  0.787E-01  0.144E-01  0.236E+00  0.144E-01  0.236E+00  0.119E-01  0.787E-01  0.144E-01  0.236E+00
 15.700  0.479E-01  0.484E+00  0.757E-02  0.412E-01  0.109E-01  0.134E+00  0.109E-01  0.134E+00  0.757E-02  0.412E-01  0.109E-01  0.134E+00
 15.800  0.466E-01  0.284E+00  0.766E-02  0.376E-01  0.104E-01  0.696E-01  0.104E-01  0.696E-01  0.766E-02  0.376E-01  0.104E-01  0.696E-01
 15.900  0.393E-01  0.223E+00  0.706E-02  0.443E-01  0.840E-02  0.448E-01  0.840E-02  0.448E-01  0.706E-02  0.443E-01  0.840E-02  0.448E-01
 16.000  0.258E-01  0.193E+00  0.522E-02  0.415E-01  0.512E-02  0.366E-01  0.512E-02  0.366E-01  0.522E-02  0.415E-01  0.512E-02  0.366E-01
 16.100  0.223E-01  0.145E+00  0.492E-02  0.287E-01  0.416E-02  0.291E-01  0.416E-02  0.291E-01  0.492E-02  0.287E-01  0.416E-02  0.291E-01
 16.200  0.403E-01  0.976E-01  0.824E-02  0.169E-01  0.794E-02  0.213E-01  0.794E-02  0.213E-01  0.824E-02  0.169E-01  0.794E-02  0.213E-01
 16.300  0.729E-01  0.672E-01  0.140E-01  0.110E-01  0.150E-01  0.151E-01  0.150E-01  0.151E-01  0.140E-01  0.110E-01  0.150E-01  0.151E-01
 16.400  0.980E-01  0.449E-01  0.181E-01  0.814E-02  0.206E-01  0.954E-02  0.206E-01  0.954E-02  0.181E-01  0.814E-02  0.206E-01  0.954E-02
 16.500  0.984E-01  0.258E-01  0.177E-01  0.549E-02  0.210E-01  0.494E-02  0.210E-01  0.494E-02  0.177E-01  0.549E-02  0.210E-01  0.494E-02
 16.600  0.802E-01  0.210E-01  0.139E-01  0.458E-02  0.175E-01  0.394E-02  0.175E-01  0.394E-02  0.139E-01  0.458E-02  0.175E-01  0.394E-02
 16.700  0.614E-01  0.402E-01  0.102E-01  0.772E-02  0.137E-01  0.825E-02  0.137E-01  0.825E-02  0.102E-01  0.772E-02  0.137E-01  0.825E-02
 16.800  0.501E-01  0.745E-01  0.801E-02  0.137E-01  0.113E-01  0.157E-01  0.113E-01  0.157E-01  0.801E-02  0.137E-01  0.113E-01  0.157E-01
 16.900  0.442E-01  0.102E+00  0.697E-02  0.183E-01  0.101E-01  0.217E-01  0.101E-01  0.217E-01  0.697E-02  0.183E-01  0.101E-01  0.217E-01
 17.000  0.423E-01  0.108E+00  0.669E-02  0.189E-01  0.963E-02  0.233E-01  0.963E-02  0.233E-01  0.669E-02  0.189E-01  0.963E-02  0.233E-01
 17.100  0.412E-01  0.977E-01  0.668E-02  0.165E-01  0.928E-02  0.216E-01  0.928E-02  0.216E-01  0.668E-02  0.165E-01  0.928E-02  0.216E-01
 17.200  0.361E-01  0.835E-01  0.615E-02  0.134E-01  0.795E-02  0.189E-01  0.795E-02  0.189E-01  0.615E-02  0.134E-01  0.795E-02  0.189E-01
 17.300  0.267E-01  0.729E-01  0.491E-02  0.112E-01  0.561E-02  0.168E-01  0.561E-02  0.168E-01  0.491E-02  0.112E-01  0.561E-02  0.168E-01
 17.400  0.171E-01  0.677E-01  0.351E-02  0.102E-01  0.336E-02  0.158E-01  0.336E-02  0.158E-01  0.351E-02  0.102E-01  0.336E-02  0.158E-01
 17.500  0.114E-01  0.634E-01  0.252E-02  0.965E-02  0.213E-02  0.147E-01  0.213E-02  0.147E-01  0.252E-02  0.965E-02  0.213E-02  0.147E-01
 17.600  0.112E-01  0.521E-01  0.230E-02  0.829E-02  0.221E-02  0.118E-01  0.221E-02  0.118E-01  0.230E-02  0.829E-02  0.221E-02  0.118E-01
 17.700  0.147E-01  0.336E-01  0.269E-02  0.578E-02  0.310E-02  0.734E-02  0.310E-02  0.734E-02  0.269E-02  0.578E-02  0.310E-02  0.734E-02
 17.800  0.181E-01  0.171E-01  0.311E-02  0.336E-02  0.397E-02  0.346E-02  0.397E-02  0.346E-02  0.311E-02  0.336E-02  0.397E-02  0.346E-02
 17.900  0.212E-01  0.117E-01  0.343E-02  0.243E-02  0.477E-02  0.230E-02  0.477E-02  0.230E-02  0.343E-02  0.243E-02  0.477E-02  0.230E-02
 18.000  0.266E-01  0.171E-01  0.408E-02  0.304E-02  0.614E-02  0.368E-02  0.614E-02  0.368E-02  0.408E-02  0.304E-02  0.614E-02  0.368E-02
 18.100  0.337E-01  0.245E-01  0.499E-02  0.388E-02  0.791E-02  0.557E-02  0.791E-02  0.557E-02  0.499E-02  0.388E-02  0.791E-02  0.557E-02
 18.200  0.359E-01  0.267E-01  0.521E-02  0.394E-02  0.850E-02  0.628E-02  0.850E-02  0.628E-02  0.521E-02  0.394E-02  0.850E-02  0.628E-02
 18.300  0.289E-01  0.261E-01  0.413E-02  0.368E-02  0.687E-02  0.626E-02  0.687E-02  0.626E-02  0.413E-02  0.368E-02  0.687E-02  0.626E-02
 18.400  0.182E-01  0.296E-01  0.259E-02  0.417E-02  0.433E-02  0.708E-02  0.433E-02  0.708E-02  0.259E-02  0.417E-02  0.433E-02  0.708E-02
 18.500  0.144E-01  0.367E-01  0.216E-02  0.529E-02  0.336E-02  0.871E-02  0.336E-02  0.871E-02  0.216E-02  0.529E-02  0.336E-02  0.871E-02
 18.600  0.192E-01  0.386E-01  0.306E-02  0.561E-02  0.436E-02  0.914E-02  0.436E-02  0.914E-02  0.306E-02  0.561E-02  0.436E-02  0.914E-02
 18.700  0.234E-01  0.312E-01  0.381E-02  0.455E-02  0.526E-02  0.738E-02  0.526E-02  0.738E-02  0.381E-02  0.455E-02  0.526E-02  0.738E-02
 18.800  0.200E-01  0.235E-01  0.326E-02  0.348E-02  0.451E-02  0.552E-02  0.451E-02  0.552E-02  0.326E-02  0.348E-02  0.451E-02  0.552E-02
 18.900  0.125E-01  0.249E-01  0.195E-02  0.381E-02  0.286E-02  0.576E-02  0.286E-02  0.576E-02  0.195E-02  0.381E-02  0.286E-02  0.576E-02
 19.000  0.691E-02  0.305E-01  0.973E-03  0.471E-02  0.165E-02  0.704E-02  0.165E-02  0.704E-02  0.973E-03  0.471E-02  0.165E-02  0.704E-02
 19.100  0.479E-02  0.290E-01  0.634E-03  0.442E-02  0.117E-02  0.671E-02  0.117E-02  0.671E-02  0.634E-03  0.442E-02  0.117E-02  0.671E-02
 19.200  0.538E-02  0.193E-01  0.756E-03  0.287E-02  0.129E-02  0.452E-02  0.129E-02  0.452E-02  0.756E-03  0.287E-02  0.129E-02  0.452E-02
 19.300  0.919E-02  0.982E-02  0.133E-02  0.138E-02  0.218E-02  0.235E-02  0.218E-02  0.235E-02  0.133E-02  0.138E-02  0.218E-02  0.235E-02
 19.400  0.148E-01  0.582E-02  0.213E-02  0.761E-03  0.350E-02  0.143E-02  0.350E-02  0.143E-02  0.213E-02  0.761E-03  0.350E-02  0.143E-02
 19.500  0.174E-01  0.754E-02  0.252E-02  0.958E-03  0.413E-02  0.187E-02  0.413E-02  0.187E-02  0.252E-02  0.958E-03  0.413E-02  0.187E-02
 19.600  0.146E-01  0.141E-01  0.213E-02  0.178E-02  0.343E-02  0.352E-02  0.343E-02  0.352E-02  0.213E-02  0.178E-02  0.343E-02  0.352E-02
 19.700  0.856E-02  0.217E-01  0.127E-02  0.275E-02  0.201E-02  0.541E-02  0.201E-02  0.541E-02  0.127E-02  0.275E-02  0.201E-02  0.541E-02
 19.800  0.337E-02  0.238E-01  0.476E-03  0.305E-02  0.806E-03  0.589E-02  0.806E-03  0.589E-02  0.476E-03  0.305E-02  0.806E-03  0.589E-02
 19.900  0.497E-03  0.181E-01  0.316E-04  0.238E-02  0.144E-03  0.445E-02  0.144E-03  0.445E-02  0.316E-04  0.238E-02  0.144E-03  0.445E-02
 20.000 -0.648E-03  0.934E-02 -0.123E-03  0.126E-02 -0.134E-03  0.227E-02 -0.134E-03  0.227E-02 -0.123E-03  0.126E-02 -0.134E-03  0.227E-02
 20.100 -0.789E-03  0.274E-02 -0.127E-03  0.383E-03 -0.178E-03  0.659E-03 -0.178E-03  0.659E-03 -0.127E-03  0.383E-03 -0.178E-03  0.659E-03
 20.200  0.236E-03 -0.388E-03 -0.748E-05 -0.498E-04  0.837E-04 -0.961E-04  0.837E-04 -0.961E-04 -0.748E-05 -0.498E-04  0.837E-04 -0.961E-04
 20.300  0.301E-02 -0.131E-02  0.320E-03 -0.176E-03  0.790E-03 -0.318E-03  0.790E-03 -0.318E-03  0.320E-03 -0.176E-03  0.790E-03 -0.318E-03
 20.400  0.702E-02 -0.101E-02  0.843E-03 -0.146E-03  0.178E-02 -0.240E-03  0.178E-02 -0.240E-03  0.843E-03 -0.146E-03  0.178E-02 -0.240E-03
 20.500  0.991E-02  0.951E-03  0.129E-02  0.828E-04  0.244E-02  0.262E-03  0.244E-02  0.262E-03  0.129E-02  0.828E-04  0.244E-02  0.262E-03
 20.600  0.949E-02  0.537E-02  0.132E-02  0.636E-03  0.228E-02  0.137E-02  0.228E-02  0.137E-02  0.132E-02  0.636E-03  0.228E-02  0.137E-02
 20.700  0.632E-02  0.109E-01  0.931E-03  0.139E-02  0.148E-02  0.271E-02  0.148E-02  0.271E-02  0.931E-03  0.139E-02  0.148E-02  0.271E-02
 20.800  0.330E-02  0.138E-01  0.478E-03  0.184E-02  0.783E-03  0.338E-02  0.783E-03  0.338E-02  0.478E-03  0.184E-02  0.783E-03  0.338E-02
 20.900  0.239E-02  0.118E-01  0.268E-03  0.163E-02  0.617E-03  0.284E-02  0.617E-03  0.284E-02  0.268E-03  0.163E-02  0.617E-03  0.284E-02
 21.000  0.268E-02  0.698E-02  0.251E-03  0.971E-03  0.724E-03  0.168E-02  0.724E-03  0.168E-02  0.251E-03  0.971E-03  0.724E-03  0.168E-02
 21.100  0.228E-02  0.371E-02  0.220E-03  0.438E-03  0.615E-03  0.945E-03  0.615E-03  0.945E-03  0.220E-03  0.438E-03  0.615E-03  0.945E-03
 21.200  0.105E-02  0.331E-02  0.130E-03  0.287E-03  0.264E-03  0.913E-03  0.264E-03  0.913E-03  0.130E-03  0.287E-03  0.264E-03  0.913E-03
 21.300  0.751E-03  0.358E-02  0.114E-03  0.304E-03  0.174E-03  0.992E-03  0.174E-03  0.992E-03  0.114E-03  0.304E-03  0.174E-03  0.992E-03
 21.400  0.310E-02  0.262E-02  0.248E-03  0.249E-03  0.869E-03  0.706E-03  0.869E-03  0.706E-03  0.248E-03  0.249E-03  0.869E-03  0.706E-03
 21.500  0.792E-02  0.127E-02  0.411E-03  0.168E-03  0.237E-02  0.309E-03  0.237E-02  0.309E-03  0.411E-03  0.168E-03  0.237E-02  0.309E-03
 21.600  0.129E-01  0.157E-02  0.427E-03  0.233E-03  0.401E-02  0.368E-03  0.401E-02  0.368E-03  0.427E-03  0.233E-03  0.401E-02  0.368E-03
 21.700  0.152E-01  0.415E-02  0.275E-03  0.427E-03  0.488E-02  0.110E-02  0.488E-02  0.110E-02  0.275E-03  0.427E-03  0.488E-02  0.110E-02
 21.800  0.143E-01  0.790E-02  0.963E-04  0.536E-03  0.472E-02  0.228E-02  0.472E-02  0.228E-02  0.963E-04  0.536E-03  0.472E-02  0.228E-02
 21.900  0.124E-01  0.116E-01  0.688E-05  0.424E-03  0.412E-02  0.357E-02  0.412E-02  0.357E-02  0.688E-05  0.424E-03  0.412E-02  0.357E-02
 22.000  0.114E-01  0.144E-01  0.289E-05  0.196E-03  0.381E-02  0.468E-02  0.381E-02  0.468E-02  0.289E-05  0.196E-03  0.381E-02  0.468E-02
 22.100  0.121E-01  0.161E-01  0.331E-04  0.317E-04  0.401E-02  0.533E-02  0.401E-02  0.533E-02  0.331E-04  0.317E-04  0.401E-02  0.533E-02
 22.200  0.137E-01  0.164E-01  0.676E-04 -0.143E-04  0.451E-02  0.549E-02  0.451E-02  0.549E-02  0.676E-04 -0.143E-04  0.451E-02  0.549E-02
 22.300  0.145E-01  0.163E-01  0.908E-04  0.673E-05  0.477E-02  0.542E-02  0.477E-02  0.542E-02  0.908E-04  0.673E-05  0.477E-02  0.542E-02
 22.400  0.127E-01  0.165E-01  0.882E-04  0.448E-04  0.418E-02  0.546E-02  0.418E-02  0.546E-02  0.882E-04  0.448E-04  0.418E-02  0.546E-02
 22.500  0.915E-02  0.173E-01  0.676E-04  0.817E-04  0.301E-02  0.571E-02  0.301E-02  0.571E-02  0.676E-04  0.817E-04  0.301E-02  0.571E-02
 22.600  0.658E-02  0.174E-01  0.607E-04  0.103E-03  0.215E-02  0.574E-02  0.215E-02  0.574E-02  0.607E-04  0.103E-03  0.215E-02  0.574E-02
 22.700  0.603E-02  0.153E-01  0.802E-04  0.965E-04  0.196E-02  0.505E-02  0.196E-02  0.505E-02  0.802E-04  0.965E-04  0.196E-02  0.505E-02
 22.800  0.610E-02  0.119E-01  0.983E-04  0.780E-04  0.197E-02  0.390E-02  0.197E-02  0.390E-02  0.983E-04  0.780E-04  0.197E-02  0.390E-02
 22.900  0.595E-02  0.945E-02  0.905E-04  0.803E-04  0.192E-02  0.310E-02  0.192E-02  0.310E-02  0.905E-04  0.803E-04  0.192E-02  0.310E-02
 23.000  0.610E-02  0.864E-02  0.725E-04  0.102E-03  0.199E-02  0.281E-02  0.199E-02  0.281E-02  0.725E-04  0.102E-03  0.199E-02  0.281E-02
 23.100  0.642E-02  0.796E-02  0.718E-04  0.111E-03  0.209E-02  0.258E-02  0.209E-02  0.258E-02  0.718E-04  0.111E-03  0.209E-02  0.258E-02
 23.200  0.616E-02  0.733E-02  0.836E-04  0.103E-03  0.200E-02  0.237E-02  0.200E-02  0.237E-02  0.836E-04  0.103E-03  0.200E-02  0.237E-02
 23.300  0.566E-02  0.782E-02  0.807E-04  0.111E-03  0.183E-02  0.253E-02  0.183E-02  0.253E-02  0.807E-04  0.111E-03  0.183E-02  0.253E-02
 23.400  0.563E-02  0.870E-02  0.522E-04  0.137E-03  0.184E-02  0.281E-02  0.184E-02  0.281E-02  0.522E-04  0.137E-03  0.184E-02  0.281E-02
 23.500  0.550E-02  0.836E-02  0.163E-04  0.140E-03  0.182E-02  0.269E-02  0.182E-02  0.269E-02  0.163E-04  0.140E-03  0.182E-02  0.269E-02
 23.600  0.438E-02  0.719E-02  0.113E-05  0.969E-04  0.146E-02  0.233E-02  0.146E-02  0.233E-02  0.113E-05  0.969E-04  0.146E-02  0.233E-02
 23.700  0.301E-02  0.654E-02  0.259E-04  0.354E-04  0.987E-03  0.216E-02  0.987E-03  0.216E-02  0.259E-04  0.354E-04  0.987E-03  0.216E-02
 23.800  0.287E-02  0.622E-02  0.848E-04  0.228E-05  0.899E-03  0.207E-02  0.899E-03  0.207E-02  0.848E-04  0.228E-05  0.899E-03  0.207E-02
 23.900  0.378E-02  0.555E-02  0.137E-03  0.259E-04  0.117E-02  0.183E-02  0.117E-02  0.183E-02  0.137E-03  0.259E-04  0.117E-02  0.183E-02
 24.000  0.428E-02  0.513E-02  0.136E-03  0.998E-04  0.134E-02  0.164E-02  0.134E-02  0.164E-02  0.136E-03  0.998E-04  0.134E-02  0.164E-02
 24.100  0.402E-02  0.549E-02  0.860E-04  0.173E-03  0.128E-02  0.172E-02  0.128E-02  0.172E-02  0.860E-04  0.173E-03  0.128E-02  0.172E-02
 24.200  0.388E-02  0.558E-02  0.335E-04  0.181E-03  0.127E-02  0.174E-02  0.127E-02  0.174E-02  0.335E-04  0.181E-03  0.127E-02  0.174E-02
 24.300  0.398E-02  0.477E-02  0.893E-05  0.120E-03  0.132E-02  0.151E-02  0.132E-02  0.151E-02  0.893E-05  0.120E-03  0.132E-02  0.151E-02
 24.400  0.339E-02  0.426E-02  0.408E-05  0.475E-04  0.113E-02  0.139E-02  0.113E-02  0.139E-02  0.408E-05  0.475E-04  0.113E-02  0.139E-02
 24.500  0.209E-02  0.473E-02  0.227E-05  0.118E-04  0.695E-03  0.157E-02  0.695E-03  0.157E-02  0.227E-05  0.118E-04  0.695E-03  0.157E-02
 24.600  0.128E-02  0.488E-02 -0.485E-06  0.651E-05  0.428E-03  0.162E-02  0.428E-03  0.162E-02 -0.485E-06  0.651E-05  0.428E-03  0.162E-02
 24.700  0.162E-02  0.363E-02 -0.565E-05  0.684E-05  0.543E-03  0.121E-02  0.543E-03  0.121E-02 -0.565E-05  0.684E-05  0.543E-03  0.121E-02
 24.800  0.233E-02  0.211E-02 -0.206E-04  0.612E-05  0.789E-03  0.698E-03  0.789E-03  0.698E-03 -0.206E-04  0.612E-05  0.789E-03  0.698E-03
 24.900  0.245E-02  0.196E-02 -0.257E-04  0.860E-05  0.835E-03  0.648E-03  0.835E-03  0.648E-03 -0.257E-04  0.860E-05  0.835E-03  0.648E-03
 25.000  0.225E-02  0.293E-02  0.765E-04  0.505E-05  0.700E-03  0.974E-03  0.700E-03  0.974E-03  0.765E-04  0.505E-05  0.700E-03  0.974E-03
 25.100  0.268E-02  0.345E-02  0.400E-03 -0.168E-04  0.628E-03  0.116E-02  0.628E-03  0.116E-02  0.400E-03 -0.168E-04  0.628E-03  0.116E-02
